/////////////////////////////////////////////////////////////////////////////////
/// Profile Data Ascii Dump (XRD)                                             ///
/////////////////////////////////////////////////////////////////////////////////

  Group     : Standard
  Data      : Bianca
  File Name : Bianca.RAW

# Profile Datafile
          comment             =  
          date & time         = 04-11-19 10:14:46 

# Measurement Condition
    X-ray tube
          target              = Cu 
          voltage             = 40.0 (kV)
          current             = 20.0 (mA)
    Slits
          divergence slit     = 1.00000 (deg) 
          scatter slit        = 1.00000 (deg) 
          receiving slit      = 0.30000 (mm)  
    Scanning
          drive axis          = Theta-2Theta 
          scan range          =    5.000 -   95.000 
          scan mode           = Continuous Scan 
          scan speed          =   2.0000 (deg/min) 
          sampling pitch      =   0.0200 (deg) 
          preset time         =   0.60 (sec) 

# Data      [ Total No. = 4501 ]
  <2Theta>   <   I   >
     5.0000        96
     5.0200        86
     5.0400        98
     5.0600       102
     5.0800        98
     5.1000        96
     5.1200        72
     5.1400        98
     5.1600       106
     5.1800        80
     5.2000        86
     5.2200       104
     5.2400        98
     5.2600        90
     5.2800        74
     5.3000        86
     5.3200        98
     5.3400        82
     5.3600        96
     5.3800       118
     5.4000        94
     5.4200        78
     5.4400        82
     5.4600        84
     5.4800        84
     5.5000        88
     5.5200        82
     5.5400        86
     5.5600        92
     5.5800       108
     5.6000        82
     5.6200        84
     5.6400        88
     5.6600        92
     5.6800        82
     5.7000        88
     5.7200        82
     5.7400        82
     5.7600        80
     5.7800        80
     5.8000        86
     5.8200        96
     5.8400        88
     5.8600        76
     5.8800        86
     5.9000        88
     5.9200        88
     5.9400        72
     5.9600        92
     5.9800        80
     6.0000        96
     6.0200        76
     6.0400        78
     6.0600        74
     6.0800        78
     6.1000        78
     6.1200        72
     6.1400       116
     6.1600        84
     6.1800       112
     6.2000        96
     6.2200        80
     6.2400        88
     6.2600       110
     6.2800        78
     6.3000        94
     6.3200        94
     6.3400        72
     6.3600        76
     6.3800        88
     6.4000        84
     6.4200        92
     6.4400        86
     6.4600        74
     6.4800        74
     6.5000        80
     6.5200        70
     6.5400        80
     6.5600        78
     6.5800        80
     6.6000        78
     6.6200        76
     6.6400        80
     6.6600        92
     6.6800        94
     6.7000        96
     6.7200        94
     6.7400        86
     6.7600        72
     6.7800        64
     6.8000        76
     6.8200        84
     6.8400        94
     6.8600        76
     6.8800        66
     6.9000        82
     6.9200        98
     6.9400        72
     6.9600        84
     6.9800        96
     7.0000        82
     7.0200        64
     7.0400        86
     7.0600        94
     7.0800        76
     7.1000        98
     7.1200        82
     7.1400        80
     7.1600        92
     7.1800        68
     7.2000        94
     7.2200        80
     7.2400        76
     7.2600        76
     7.2800        96
     7.3000        80
     7.3200        86
     7.3400        88
     7.3600        92
     7.3800        76
     7.4000        80
     7.4200        82
     7.4400        72
     7.4600        88
     7.4800        70
     7.5000        84
     7.5200        92
     7.5400        82
     7.5600        86
     7.5800        94
     7.6000        66
     7.6200        90
     7.6400        74
     7.6600        72
     7.6800        78
     7.7000        90
     7.7200        76
     7.7400        84
     7.7600        78
     7.7800        76
     7.8000        80
     7.8200        86
     7.8400        90
     7.8600        76
     7.8800        94
     7.9000        82
     7.9200        72
     7.9400        88
     7.9600        74
     7.9800        66
     8.0000        82
     8.0200        80
     8.0400        84
     8.0600        94
     8.0800        90
     8.1000        88
     8.1200        70
     8.1400        76
     8.1600        92
     8.1800       100
     8.2000        78
     8.2200        88
     8.2400        70
     8.2600        88
     8.2800        84
     8.3000        88
     8.3200       100
     8.3400        94
     8.3600        64
     8.3800        80
     8.4000        86
     8.4200        86
     8.4400        76
     8.4600        96
     8.4800        86
     8.5000        70
     8.5200       112
     8.5400        90
     8.5600        82
     8.5800        80
     8.6000        96
     8.6200        88
     8.6400        88
     8.6600        84
     8.6800        98
     8.7000        76
     8.7200        84
     8.7400        74
     8.7600        98
     8.7800       100
     8.8000        88
     8.8200        96
     8.8400        90
     8.8600        92
     8.8800        82
     8.9000        88
     8.9200       106
     8.9400        90
     8.9600       102
     8.9800        92
     9.0000        88
     9.0200        82
     9.0400        98
     9.0600        82
     9.0800        82
     9.1000        86
     9.1200        84
     9.1400       100
     9.1600        88
     9.1800        98
     9.2000        78
     9.2200        70
     9.2400       108
     9.2600        84
     9.2800       104
     9.3000        84
     9.3200        96
     9.3400       110
     9.3600        88
     9.3800        90
     9.4000        90
     9.4200        78
     9.4400        64
     9.4600        70
     9.4800        78
     9.5000        96
     9.5200       112
     9.5400        80
     9.5600        86
     9.5800        94
     9.6000        76
     9.6200        92
     9.6400       100
     9.6600       100
     9.6800        88
     9.7000        78
     9.7200        94
     9.7400       104
     9.7600        82
     9.7800        96
     9.8000        98
     9.8200        94
     9.8400        86
     9.8600        90
     9.8800        96
     9.9000       118
     9.9200       110
     9.9400        82
     9.9600       110
     9.9800        94
    10.0000        90
    10.0200        92
    10.0400        90
    10.0600        96
    10.0800       102
    10.1000        88
    10.1200        96
    10.1400        96
    10.1600       106
    10.1800        86
    10.2000       100
    10.2200        94
    10.2400       100
    10.2600       112
    10.2800       100
    10.3000       100
    10.3200        98
    10.3400        96
    10.3600        92
    10.3800       114
    10.4000        90
    10.4200        98
    10.4400        88
    10.4600        76
    10.4800       100
    10.5000       104
    10.5200       106
    10.5400       104
    10.5600       112
    10.5800        88
    10.6000       104
    10.6200        78
    10.6400       106
    10.6600       102
    10.6800       102
    10.7000       104
    10.7200       120
    10.7400       104
    10.7600       108
    10.7800        96
    10.8000       114
    10.8200       118
    10.8400       128
    10.8600       102
    10.8800       108
    10.9000        94
    10.9200       102
    10.9400       102
    10.9600       126
    10.9800       114
    11.0000       102
    11.0200        98
    11.0400       102
    11.0600       110
    11.0800       104
    11.1000       116
    11.1200       104
    11.1400       138
    11.1600       110
    11.1800        98
    11.2000       110
    11.2200       116
    11.2400       110
    11.2600       124
    11.2800       118
    11.3000       104
    11.3200       118
    11.3400       114
    11.3600       118
    11.3800       110
    11.4000       114
    11.4200       116
    11.4400       112
    11.4600       120
    11.4800       126
    11.5000       112
    11.5200       118
    11.5400       132
    11.5600       106
    11.5800       112
    11.6000       118
    11.6200       106
    11.6400       120
    11.6600       124
    11.6800       116
    11.7000       132
    11.7200       120
    11.7400       124
    11.7600       124
    11.7800       108
    11.8000       126
    11.8200       120
    11.8400       112
    11.8600       116
    11.8800       120
    11.9000       118
    11.9200       138
    11.9400       136
    11.9600       130
    11.9800       108
    12.0000       134
    12.0200       108
    12.0400       142
    12.0600       134
    12.0800       116
    12.1000       130
    12.1200       134
    12.1400       138
    12.1600       120
    12.1800       134
    12.2000       128
    12.2200       126
    12.2400       130
    12.2600       124
    12.2800       122
    12.3000       148
    12.3200       152
    12.3400       132
    12.3600       130
    12.3800       124
    12.4000       138
    12.4200       130
    12.4400       142
    12.4600       162
    12.4800       144
    12.5000       140
    12.5200       166
    12.5400       140
    12.5600       162
    12.5800       138
    12.6000       146
    12.6200       170
    12.6400       152
    12.6600       180
    12.6800       154
    12.7000       168
    12.7200       150
    12.7400       158
    12.7600       150
    12.7800       166
    12.8000       154
    12.8200       154
    12.8400       174
    12.8600       176
    12.8800       180
    12.9000       186
    12.9200       190
    12.9400       158
    12.9600       210
    12.9800       180
    13.0000       160
    13.0200       174
    13.0400       182
    13.0600       190
    13.0800       174
    13.1000       204
    13.1200       186
    13.1400       204
    13.1600       188
    13.1800       192
    13.2000       232
    13.2200       218
    13.2400       218
    13.2600       246
    13.2800       214
    13.3000       242
    13.3200       196
    13.3400       186
    13.3600       240
    13.3800       238
    13.4000       228
    13.4200       242
    13.4400       218
    13.4600       248
    13.4800       238
    13.5000       230
    13.5200       274
    13.5400       256
    13.5600       244
    13.5800       260
    13.6000       278
    13.6200       258
    13.6400       270
    13.6600       270
    13.6800       302
    13.7000       288
    13.7200       286
    13.7400       298
    13.7600       288
    13.7800       298
    13.8000       292
    13.8200       318
    13.8400       280
    13.8600       340
    13.8800       334
    13.9000       330
    13.9200       312
    13.9400       316
    13.9600       328
    13.9800       342
    14.0000       332
    14.0200       288
    14.0400       360
    14.0600       346
    14.0800       356
    14.1000       358
    14.1200       328
    14.1400       386
    14.1600       368
    14.1800       354
    14.2000       378
    14.2200       360
    14.2400       372
    14.2600       394
    14.2800       378
    14.3000       410
    14.3200       370
    14.3400       356
    14.3600       392
    14.3800       366
    14.4000       412
    14.4200       404
    14.4400       388
    14.4600       372
    14.4800       352
    14.5000       388
    14.5200       414
    14.5400       410
    14.5600       380
    14.5800       402
    14.6000       370
    14.6200       416
    14.6400       424
    14.6600       420
    14.6800       392
    14.7000       422
    14.7200       376
    14.7400       378
    14.7600       444
    14.7800       410
    14.8000       396
    14.8200       358
    14.8400       408
    14.8600       420
    14.8800       418
    14.9000       422
    14.9200       402
    14.9400       396
    14.9600       406
    14.9800       404
    15.0000       394
    15.0200       372
    15.0400       436
    15.0600       400
    15.0800       402
    15.1000       410
    15.1200       440
    15.1400       370
    15.1600       370
    15.1800       406
    15.2000       414
    15.2200       428
    15.2400       398
    15.2600       364
    15.2800       386
    15.3000       384
    15.3200       450
    15.3400       406
    15.3600       410
    15.3800       388
    15.4000       390
    15.4200       384
    15.4400       400
    15.4600       374
    15.4800       376
    15.5000       426
    15.5200       372
    15.5400       432
    15.5600       392
    15.5800       372
    15.6000       434
    15.6200       384
    15.6400       424
    15.6600       414
    15.6800       426
    15.7000       390
    15.7200       412
    15.7400       392
    15.7600       436
    15.7800       380
    15.8000       374
    15.8200       394
    15.8400       394
    15.8600       408
    15.8800       412
    15.9000       390
    15.9200       400
    15.9400       388
    15.9600       396
    15.9800       384
    16.0000       422
    16.0200       396
    16.0400       390
    16.0600       392
    16.0800       376
    16.1000       396
    16.1200       384
    16.1400       398
    16.1600       412
    16.1800       416
    16.2000       380
    16.2200       370
    16.2400       422
    16.2600       376
    16.2800       370
    16.3000       374
    16.3200       378
    16.3400       358
    16.3600       400
    16.3800       404
    16.4000       356
    16.4200       366
    16.4400       390
    16.4600       366
    16.4800       368
    16.5000       350
    16.5200       362
    16.5400       370
    16.5600       360
    16.5800       354
    16.6000       352
    16.6200       356
    16.6400       316
    16.6600       358
    16.6800       304
    16.7000       328
    16.7200       306
    16.7400       318
    16.7600       338
    16.7800       338
    16.8000       320
    16.8200       308
    16.8400       318
    16.8600       296
    16.8800       342
    16.9000       308
    16.9200       338
    16.9400       292
    16.9600       308
    16.9800       306
    17.0000       324
    17.0200       266
    17.0400       296
    17.0600       306
    17.0800       264
    17.1000       276
    17.1200       304
    17.1400       268
    17.1600       268
    17.1800       256
    17.2000       290
    17.2200       242
    17.2400       248
    17.2600       276
    17.2800       222
    17.3000       224
    17.3200       262
    17.3400       244
    17.3600       240
    17.3800       240
    17.4000       268
    17.4200       226
    17.4400       226
    17.4600       232
    17.4800       238
    17.5000       248
    17.5200       244
    17.5400       222
    17.5600       246
    17.5800       266
    17.6000       228
    17.6200       222
    17.6400       208
    17.6600       214
    17.6800       250
    17.7000       222
    17.7200       206
    17.7400       208
    17.7600       222
    17.7800       222
    17.8000       240
    17.8200       236
    17.8400       214
    17.8600       202
    17.8800       212
    17.9000       212
    17.9200       202
    17.9400       212
    17.9600       228
    17.9800       206
    18.0000       244
    18.0200       198
    18.0400       216
    18.0600       196
    18.0800       208
    18.1000       214
    18.1200       214
    18.1400       214
    18.1600       236
    18.1800       230
    18.2000       192
    18.2200       204
    18.2400       234
    18.2600       224
    18.2800       228
    18.3000       216
    18.3200       218
    18.3400       206
    18.3600       220
    18.3800       214
    18.4000       212
    18.4200       218
    18.4400       232
    18.4600       246
    18.4800       232
    18.5000       206
    18.5200       252
    18.5400       210
    18.5600       240
    18.5800       208
    18.6000       212
    18.6200       228
    18.6400       210
    18.6600       254
    18.6800       216
    18.7000       242
    18.7200       198
    18.7400       244
    18.7600       230
    18.7800       254
    18.8000       206
    18.8200       238
    18.8400       266
    18.8600       236
    18.8800       248
    18.9000       228
    18.9200       234
    18.9400       222
    18.9600       246
    18.9800       258
    19.0000       252
    19.0200       234
    19.0400       260
    19.0600       242
    19.0800       250
    19.1000       244
    19.1200       236
    19.1400       262
    19.1600       260
    19.1800       222
    19.2000       284
    19.2200       278
    19.2400       258
    19.2600       284
    19.2800       252
    19.3000       268
    19.3200       258
    19.3400       262
    19.3600       286
    19.3800       252
    19.4000       274
    19.4200       292
    19.4400       286
    19.4600       266
    19.4800       302
    19.5000       282
    19.5200       298
    19.5400       282
    19.5600       290
    19.5800       270
    19.6000       268
    19.6200       306
    19.6400       296
    19.6600       322
    19.6800       286
    19.7000       322
    19.7200       310
    19.7400       318
    19.7600       324
    19.7800       346
    19.8000       314
    19.8200       344
    19.8400       356
    19.8600       316
    19.8800       360
    19.9000       362
    19.9200       370
    19.9400       378
    19.9600       390
    19.9800       360
    20.0000       368
    20.0200       374
    20.0400       364
    20.0600       354
    20.0800       382
    20.1000       386
    20.1200       380
    20.1400       354
    20.1600       406
    20.1800       376
    20.2000       376
    20.2200       412
    20.2400       372
    20.2600       374
    20.2800       410
    20.3000       406
    20.3200       390
    20.3400       436
    20.3600       388
    20.3800       372
    20.4000       360
    20.4200       340
    20.4400       420
    20.4600       374
    20.4800       410
    20.5000       440
    20.5200       398
    20.5400       368
    20.5600       414
    20.5800       402
    20.6000       386
    20.6200       384
    20.6400       412
    20.6600       414
    20.6800       402
    20.7000       434
    20.7200       428
    20.7400       444
    20.7600       398
    20.7800       390
    20.8000       430
    20.8200       460
    20.8400       426
    20.8600       446
    20.8800       446
    20.9000       458
    20.9200       486
    20.9400       464
    20.9600       450
    20.9800       462
    21.0000       448
    21.0200       486
    21.0400       488
    21.0600       526
    21.0800       512
    21.1000       492
    21.1200       506
    21.1400       544
    21.1600       550
    21.1800       544
    21.2000       560
    21.2200       548
    21.2400       604
    21.2600       630
    21.2800       610
    21.3000       634
    21.3200       546
    21.3400       630
    21.3600       676
    21.3800       664
